70BCSV 	
// AQ6370B OPTICAL SPECTRUM ANALYZER //                 
25
"CTRWL",1560.000000
"SPAN", 120.000000
"START WL",1500.000000
"STOP WL",1620.000000
"WLFREQ", 0
"REFL",-42.8
"LSCL", 5.0
"RESLN",0.500
"AVG",   1
"SMPLAUTO",      1
"SMPL",       1201
"SMPLINTVL",0.1000
"HIGH1"
"MEAS"
"LSUNT",0
"NMSKH","OFF"
"RESCOR",0
"RESPARM", 9740
"FREQPARM", 9740






"[TRACE DATA]"
1500.0000, -71.212
1500.1000, -71.171
1500.2000, -71.338
1500.3000, -71.785
1500.4000, -71.772
1500.5000, -72.101
1500.6000, -72.526
1500.7000, -72.510
1500.8000, -72.776
1500.9000, -73.337
1501.0000, -73.326
1501.1000, -73.698
1501.2000, -74.072
1501.3000, -74.152
1501.4000, -74.782
1501.5000, -75.110
1501.6000, -76.354
1501.7000, -76.713
1501.8000, -76.169
1501.9000, -77.963
1502.0000, -78.673
1502.1000, -78.609
1502.2000, -80.523
1502.3000, -80.815
1502.4000, -80.437
1502.5000, -80.865
1502.6000, -83.379
1502.7000, -83.369
1502.8000, -83.202
1502.9000, -81.322
1503.0000, -82.603
1503.1000, -79.801
1503.2000, -79.397
1503.3000, -79.015
1503.4000, -78.286
1503.5000, -77.873
1503.6000, -76.458
1503.7000, -75.510
1503.8000, -74.742
1503.9000, -74.088
1504.0000, -73.754
1504.1000, -73.172
1504.2000, -72.487
1504.3000, -72.304
1504.4000, -71.367
1504.5000, -71.006
1504.6000, -70.611
1504.7000, -70.162
1504.8000, -69.660
1504.9000, -69.487
1505.0000, -68.897
1505.1000, -68.641
1505.2000, -68.392
1505.3000, -68.038
1505.4000, -67.778
1505.5000, -67.596
1505.6000, -67.322
1505.7000, -66.910
1505.8000, -66.820
1505.9000, -66.595
1506.0000, -66.452
1506.1000, -66.291
1506.2000, -66.199
1506.3000, -66.095
1506.4000, -65.991
1506.5000, -65.811
1506.6000, -65.783
1506.7000, -65.704
1506.8000, -65.619
1506.9000, -65.632
1507.0000, -65.615
1507.1000, -65.601
1507.2000, -65.585
1507.3000, -65.685
1507.4000, -65.730
1507.5000, -65.819
1507.6000, -65.936
1507.7000, -66.112
1507.8000, -66.118
1507.9000, -66.240
1508.0000, -66.486
1508.1000, -66.521
1508.2000, -66.720
1508.3000, -66.956
1508.4000, -67.041
1508.5000, -67.243
1508.6000, -67.588
1508.7000, -67.777
1508.8000, -68.113
1508.9000, -68.358
1509.0000, -68.638
1509.1000, -68.906
1509.2000, -69.366
1509.3000, -69.570
1509.4000, -70.056
1509.5000, -70.290
1509.6000, -70.627
1509.7000, -71.172
1509.8000, -71.427
1509.9000, -71.860
1510.0000, -72.237
1510.1000, -72.176
1510.2000, -72.676
1510.3000, -72.850
1510.4000, -73.034
1510.5000, -72.584
1510.6000, -72.632
1510.7000, -72.108
1510.8000, -71.816
1510.9000, -71.252
1511.0000, -70.701
1511.1000, -69.913
1511.2000, -69.349
1511.3000, -68.832
1511.4000, -68.252
1511.5000, -67.630
1511.6000, -66.983
1511.7000, -66.460
1511.8000, -65.847
1511.9000, -65.392
1512.0000, -64.837
1512.1000, -64.388
1512.2000, -63.866
1512.3000, -63.385
1512.4000, -62.964
1512.5000, -62.541
1512.6000, -62.092
1512.7000, -61.676
1512.8000, -61.297
1512.9000, -60.922
1513.0000, -60.577
1513.1000, -60.226
1513.2000, -59.872
1513.3000, -59.575
1513.4000, -59.256
1513.5000, -58.977
1513.6000, -58.697
1513.7000, -58.431
1513.8000, -58.170
1513.9000, -57.917
1514.0000, -57.733
1514.1000, -57.504
1514.2000, -57.289
1514.3000, -57.060
1514.4000, -56.874
1514.5000, -56.696
1514.6000, -56.529
1514.7000, -56.368
1514.8000, -56.204
1514.9000, -56.056
1515.0000, -55.924
1515.1000, -55.799
1515.2000, -55.679
1515.3000, -55.560
1515.4000, -55.446
1515.5000, -55.342
1515.6000, -55.269
1515.7000, -55.177
1515.8000, -55.111
1515.9000, -55.045
1516.0000, -54.986
1516.1000, -54.953
1516.2000, -54.900
1516.3000, -54.896
1516.4000, -54.864
1516.5000, -54.861
1516.6000, -54.845
1516.7000, -54.866
1516.8000, -54.883
1516.9000, -54.915
1517.0000, -54.924
1517.1000, -54.951
1517.2000, -54.978
1517.3000, -54.995
1517.4000, -55.062
1517.5000, -55.084
1517.6000, -55.143
1517.7000, -55.194
1517.8000, -55.251
1517.9000, -55.304
1518.0000, -55.390
1518.1000, -55.465
1518.2000, -55.531
1518.3000, -55.617
1518.4000, -55.689
1518.5000, -55.753
1518.6000, -55.849
1518.7000, -55.973
1518.8000, -56.068
1518.9000, -56.080
1519.0000, -56.148
1519.1000, -56.210
1519.2000, -56.259
1519.3000, -56.299
1519.4000, -56.323
1519.5000, -56.347
1519.6000, -56.358
1519.7000, -56.350
1519.8000, -56.308
1519.9000, -56.245
1520.0000, -56.156
1520.1000, -56.041
1520.2000, -55.890
1520.3000, -55.744
1520.4000, -55.542
1520.5000, -55.312
1520.6000, -55.044
1520.7000, -54.725
1520.8000, -54.435
1520.9000, -54.089
1521.0000, -53.782
1521.1000, -53.447
1521.2000, -53.113
1521.3000, -52.781
1521.4000, -52.459
1521.5000, -52.094
1521.6000, -51.726
1521.7000, -51.341
1521.8000, -50.958
1521.9000, -50.552
1522.0000, -50.198
1522.1000, -49.830
1522.2000, -49.465
1522.3000, -49.125
1522.4000, -48.771
1522.5000, -48.401
1522.6000, -48.095
1522.7000, -47.751
1522.8000, -47.421
1522.9000, -47.117
1523.0000, -46.809
1523.1000, -46.486
1523.2000, -46.210
1523.3000, -45.959
1523.4000, -45.679
1523.5000, -45.382
1523.6000, -45.110
1523.7000, -44.889
1523.8000, -44.659
1523.9000, -44.442
1524.0000, -44.221
1524.1000, -44.029
1524.2000, -43.823
1524.3000, -43.699
1524.4000, -43.560
1524.5000, -43.431
1524.6000, -43.300
1524.7000, -43.191
1524.8000, -43.098
1524.9000, -42.994
1525.0000, -42.931
1525.1000, -42.874
1525.2000, -42.821
1525.3000, -42.759
1525.4000, -42.744
1525.5000, -42.720
1525.6000, -42.713
1525.7000, -42.736
1525.8000, -42.769
1525.9000, -42.805
1526.0000, -42.898
1526.1000, -42.964
1526.2000, -43.058
1526.3000, -43.156
1526.4000, -43.282
1526.5000, -43.377
1526.6000, -43.571
1526.7000, -43.758
1526.8000, -43.961
1526.9000, -44.259
1527.0000, -44.589
1527.1000, -44.912
1527.2000, -45.330
1527.3000, -45.754
1527.4000, -46.193
1527.5000, -46.705
1527.6000, -47.257
1527.7000, -47.887
1527.8000, -48.595
1527.9000, -49.447
1528.0000, -50.270
1528.1000, -50.616
1528.2000, -50.956
1528.3000, -50.985
1528.4000, -50.686
1528.5000, -50.107
1528.6000, -49.282
1528.7000, -48.353
1528.8000, -47.343
1528.9000, -46.357
1529.0000, -45.414
1529.1000, -44.441
1529.2000, -43.588
1529.3000, -42.823
1529.4000, -42.148
1529.5000, -41.471
1529.6000, -40.868
1529.7000, -40.275
1529.8000, -39.693
1529.9000, -39.151
1530.0000, -38.654
1530.1000, -38.178
1530.2000, -37.736
1530.3000, -37.301
1530.4000, -36.865
1530.5000, -36.495
1530.6000, -36.141
1530.7000, -35.828
1530.8000, -35.527
1530.9000, -35.205
1531.0000, -34.914
1531.1000, -34.617
1531.2000, -34.496
1531.3000, -34.227
1531.4000, -34.091
1531.5000, -33.905
1531.6000, -33.780
1531.7000, -33.703
1531.8000, -33.643
1531.9000, -33.640
1532.0000, -33.623
1532.1000, -33.610
1532.2000, -33.600
1532.3000, -33.616
1532.4000, -33.848
1532.5000, -33.979
1532.6000, -34.137
1532.7000, -34.202
1532.8000, -34.435
1532.9000, -34.683
1533.0000, -34.958
1533.1000, -35.246
1533.2000, -35.529
1533.3000, -35.890
1533.4000, -36.309
1533.5000, -36.764
1533.6000, -37.224
1533.7000, -37.721
1533.8000, -38.215
1533.9000, -38.775
1534.0000, -39.412
1534.1000, -39.974
1534.2000, -40.629
1534.3000, -41.292
1534.4000, -41.987
1534.5000, -42.747
1534.6000, -43.429
1534.7000, -44.328
1534.8000, -45.114
1534.9000, -46.030
1535.0000, -46.945
1535.1000, -47.939
1535.2000, -48.920
1535.3000, -49.938
1535.4000, -50.912
1535.5000, -51.851
1535.6000, -52.671
1535.7000, -53.457
1535.8000, -53.983
1535.9000, -54.249
1536.0000, -54.263
1536.1000, -54.001
1536.2000, -53.577
1536.3000, -53.080
1536.4000, -52.492
1536.5000, -51.880
1536.6000, -51.296
1536.7000, -50.696
1536.8000, -50.126
1536.9000, -49.610
1537.0000, -49.221
1537.1000, -48.763
1537.2000, -48.285
1537.3000, -47.923
1537.4000, -47.623
1537.5000, -47.330
1537.6000, -47.056
1537.7000, -46.800
1537.8000, -46.581
1537.9000, -46.380
1538.0000, -46.152
1538.1000, -45.975
1538.2000, -45.768
1538.3000, -45.585
1538.4000, -45.434
1538.5000, -45.341
1538.6000, -45.215
1538.7000, -45.124
1538.8000, -45.028
1538.9000, -44.909
1539.0000, -44.902
1539.1000, -44.801
1539.2000, -44.790
1539.3000, -44.682
1539.4000, -44.634
1539.5000, -44.564
1539.6000, -44.538
1539.7000, -44.491
1539.8000, -44.472
1539.9000, -44.437
1540.0000, -44.409
1540.1000, -44.374
1540.2000, -44.351
1540.3000, -44.357
1540.4000, -44.337
1540.5000, -44.343
1540.6000, -44.329
1540.7000, -44.344
1540.8000, -44.397
1540.9000, -44.428
1541.0000, -44.462
1541.1000, -44.499
1541.2000, -44.531
1541.3000, -44.548
1541.4000, -44.633
1541.5000, -44.723
1541.6000, -44.788
1541.7000, -44.854
1541.8000, -45.000
1541.9000, -45.116
1542.0000, -45.234
1542.1000, -45.359
1542.2000, -45.489
1542.3000, -45.635
1542.4000, -45.824
1542.5000, -46.011
1542.6000, -46.221
1542.7000, -46.436
1542.8000, -46.663
1542.9000, -46.924
1543.0000, -47.217
1543.1000, -47.521
1543.2000, -47.801
1543.3000, -48.119
1543.4000, -48.484
1543.5000, -48.862
1543.6000, -49.213
1543.7000, -49.645
1543.8000, -50.133
1543.9000, -50.453
1544.0000, -50.901
1544.1000, -51.359
1544.2000, -51.831
1544.3000, -52.342
1544.4000, -52.871
1544.5000, -53.366
1544.6000, -53.816
1544.7000, -54.222
1544.8000, -54.535
1544.9000, -54.729
1545.0000, -54.799
1545.1000, -54.742
1545.2000, -54.575
1545.3000, -54.350
1545.4000, -54.029
1545.5000, -53.661
1545.6000, -53.234
1545.7000, -52.764
1545.8000, -52.289
1545.9000, -51.803
1546.0000, -51.347
1546.1000, -50.912
1546.2000, -50.512
1546.3000, -50.159
1546.4000, -49.820
1546.5000, -49.476
1546.6000, -49.155
1546.7000, -48.823
1546.8000, -48.538
1546.9000, -48.265
1547.0000, -47.998
1547.1000, -47.749
1547.2000, -47.527
1547.3000, -47.317
1547.4000, -47.127
1547.5000, -46.968
1547.6000, -46.801
1547.7000, -46.651
1547.8000, -46.481
1547.9000, -46.367
1548.0000, -46.199
1548.1000, -46.067
1548.2000, -45.985
1548.3000, -45.906
1548.4000, -45.854
1548.5000, -45.783
1548.6000, -45.733
1548.7000, -45.704
1548.8000, -45.671
1548.9000, -45.635
1549.0000, -45.598
1549.1000, -45.548
1549.2000, -45.577
1549.3000, -45.577
1549.4000, -45.578
1549.5000, -45.564
1549.6000, -45.588
1549.7000, -45.639
1549.8000, -45.688
1549.9000, -45.761
1550.0000, -45.813
1550.1000, -45.876
1550.2000, -45.940
1550.3000, -46.012
1550.4000, -46.089
1550.5000, -46.151
1550.6000, -46.225
1550.7000, -46.267
1550.8000, -46.365
1550.9000, -46.443
1551.0000, -46.493
1551.1000, -46.537
1551.2000, -46.607
1551.3000, -46.701
1551.4000, -46.778
1551.5000, -46.874
1551.6000, -46.959
1551.7000, -47.060
1551.8000, -47.161
1551.9000, -47.281
1552.0000, -47.418
1552.1000, -47.491
1552.2000, -47.583
1552.3000, -47.697
1552.4000, -47.748
1552.5000, -47.838
1552.6000, -47.943
1552.7000, -48.026
1552.8000, -48.127
1552.9000, -48.214
1553.0000, -48.333
1553.1000, -48.477
1553.2000, -48.613
1553.3000, -48.762
1553.4000, -48.922
1553.5000, -49.048
1553.6000, -49.188
1553.7000, -49.321
1553.8000, -49.427
1553.9000, -49.560
1554.0000, -49.725
1554.1000, -49.917
1554.2000, -50.097
1554.3000, -50.307
1554.4000, -50.500
1554.5000, -50.712
1554.6000, -50.887
1554.7000, -51.076
1554.8000, -51.259
1554.9000, -51.468
1555.0000, -51.697
1555.1000, -51.947
1555.2000, -52.212
1555.3000, -52.496
1555.4000, -52.777
1555.5000, -53.056
1555.6000, -53.358
1555.7000, -53.645
1555.8000, -53.900
1555.9000, -54.151
1556.0000, -54.399
1556.1000, -54.646
1556.2000, -54.918
1556.3000, -55.214
1556.4000, -55.506
1556.5000, -55.763
1556.6000, -55.967
1556.7000, -56.151
1556.8000, -56.323
1556.9000, -56.475
1557.0000, -56.640
1557.1000, -56.760
1557.2000, -56.847
1557.3000, -56.855
1557.4000, -56.810
1557.5000, -56.705
1557.6000, -56.543
1557.7000, -56.329
1557.8000, -56.070
1557.9000, -55.719
1558.0000, -55.437
1558.1000, -55.079
1558.2000, -54.736
1558.3000, -54.399
1558.4000, -54.071
1558.5000, -53.775
1558.6000, -53.450
1558.7000, -53.148
1558.8000, -52.858
1558.9000, -52.563
1559.0000, -52.207
1559.1000, -51.921
1559.2000, -51.637
1559.3000, -51.361
1559.4000, -51.122
1559.5000, -50.885
1559.6000, -50.669
1559.7000, -50.446
1559.8000, -50.232
1559.9000, -50.025
1560.0000, -49.860
1560.1000, -49.721
1560.2000, -49.591
1560.3000, -49.473
1560.4000, -49.350
1560.5000, -49.237
1560.6000, -49.130
1560.7000, -49.024
1560.8000, -48.935
1560.9000, -48.835
1561.0000, -48.799
1561.1000, -48.740
1561.2000, -48.711
1561.3000, -48.717
1561.4000, -48.714
1561.5000, -48.707
1561.6000, -48.698
1561.7000, -48.712
1561.8000, -48.701
1561.9000, -48.733
1562.0000, -48.754
1562.1000, -48.794
1562.2000, -48.842
1562.3000, -48.897
1562.4000, -49.007
1562.5000, -49.090
1562.6000, -49.210
1562.7000, -49.332
1562.8000, -49.458
1562.9000, -49.598
1563.0000, -49.766
1563.1000, -49.912
1563.2000, -50.075
1563.3000, -50.259
1563.4000, -50.465
1563.5000, -50.689
1563.6000, -50.947
1563.7000, -51.209
1563.8000, -51.503
1563.9000, -51.829
1564.0000, -52.161
1564.1000, -52.512
1564.2000, -52.861
1564.3000, -53.245
1564.4000, -53.660
1564.5000, -54.107
1564.6000, -54.615
1564.7000, -55.095
1564.8000, -55.575
1564.9000, -56.097
1565.0000, -56.619
1565.1000, -57.225
1565.2000, -57.851
1565.3000, -58.518
1565.4000, -59.213
1565.5000, -59.959
1565.6000, -60.730
1565.7000, -61.564
1565.8000, -62.424
1565.9000, -63.345
1566.0000, -64.200
1566.1000, -64.924
1566.2000, -65.514
1566.3000, -65.740
1566.4000, -65.737
1566.5000, -65.514
1566.6000, -65.203
1566.7000, -64.788
1566.8000, -64.138
1566.9000, -63.607
1567.0000, -63.071
1567.1000, -62.467
1567.2000, -61.960
1567.3000, -61.382
1567.4000, -60.868
1567.5000, -60.404
1567.6000, -59.934
1567.7000, -59.489
1567.8000, -59.104
1567.9000, -58.736
1568.0000, -58.381
1568.1000, -58.066
1568.2000, -57.754
1568.3000, -57.417
1568.4000, -57.116
1568.5000, -56.820
1568.6000, -56.556
1568.7000, -56.283
1568.8000, -56.030
1568.9000, -55.819
1569.0000, -55.605
1569.1000, -55.403
1569.2000, -55.210
1569.3000, -55.018
1569.4000, -54.847
1569.5000, -54.713
1569.6000, -54.577
1569.7000, -54.454
1569.8000, -54.354
1569.9000, -54.283
1570.0000, -54.238
1570.1000, -54.174
1570.2000, -54.135
1570.3000, -54.097
1570.4000, -54.064
1570.5000, -54.051
1570.6000, -54.037
1570.7000, -54.028
1570.8000, -54.031
1570.9000, -54.046
1571.0000, -54.072
1571.1000, -54.076
1571.2000, -54.105
1571.3000, -54.139
1571.4000, -54.181
1571.5000, -54.233
1571.6000, -54.302
1571.7000, -54.372
1571.8000, -54.449
1571.9000, -54.538
1572.0000, -54.644
1572.1000, -54.728
1572.2000, -54.843
1572.3000, -54.915
1572.4000, -55.028
1572.5000, -55.156
1572.6000, -55.279
1572.7000, -55.399
1572.8000, -55.530
1572.9000, -55.669
1573.0000, -55.789
1573.1000, -55.937
1573.2000, -56.102
1573.3000, -56.267
1573.4000, -56.422
1573.5000, -56.614
1573.6000, -56.791
1573.7000, -57.010
1573.8000, -57.222
1573.9000, -57.439
1574.0000, -57.680
1574.1000, -57.926
1574.2000, -58.210
1574.3000, -58.474
1574.4000, -58.744
1574.5000, -59.034
1574.6000, -59.313
1574.7000, -59.621
1574.8000, -59.941
1574.9000, -60.264
1575.0000, -60.631
1575.1000, -61.032
1575.2000, -61.415
1575.3000, -61.791
1575.4000, -62.191
1575.5000, -62.662
1575.6000, -63.116
1575.7000, -63.569
1575.8000, -64.052
1575.9000, -64.566
1576.0000, -64.972
1576.1000, -65.532
1576.2000, -65.920
1576.3000, -66.570
1576.4000, -67.076
1576.5000, -67.569
1576.6000, -68.193
1576.7000, -68.924
1576.8000, -69.400
1576.9000, -70.122
1577.0000, -70.818
1577.1000, -71.220
1577.2000, -72.030
1577.3000, -72.487
1577.4000, -73.098
1577.5000, -74.014
1577.6000, -74.852
1577.7000, -75.005
1577.8000, -75.157
1577.9000, -74.946
1578.0000, -75.015
1578.1000, -74.933
1578.2000, -74.331
1578.3000, -73.446
1578.4000, -73.315
1578.5000, -72.621
1578.6000, -71.981
1578.7000, -71.241
1578.8000, -70.809
1578.9000, -70.340
1579.0000, -69.697
1579.1000, -69.540
1579.2000, -69.240
1579.3000, -68.772
1579.4000, -68.351
1579.5000, -68.068
1579.6000, -67.892
1579.7000, -67.532
1579.8000, -67.251
1579.9000, -67.115
1580.0000, -66.918
1580.1000, -66.717
1580.2000, -66.603
1580.3000, -66.555
1580.4000, -66.345
1580.5000, -66.277
1580.6000, -66.238
1580.7000, -66.162
1580.8000, -66.161
1580.9000, -66.053
1581.0000, -66.037
1581.1000, -65.983
1581.2000, -65.930
1581.3000, -65.867
1581.4000, -65.865
1581.5000, -65.833
1581.6000, -65.928
1581.7000, -65.803
1581.8000, -65.919
1581.9000, -65.895
1582.0000, -65.918
1582.1000, -65.970
1582.2000, -66.010
1582.3000, -66.026
1582.4000, -66.233
1582.5000, -66.212
1582.6000, -66.259
1582.7000, -66.393
1582.8000, -66.449
1582.9000, -66.505
1583.0000, -66.658
1583.1000, -66.593
1583.2000, -66.813
1583.3000, -66.772
1583.4000, -66.910
1583.5000, -66.864
1583.6000, -66.975
1583.7000, -67.172
1583.8000, -67.266
1583.9000, -67.419
1584.0000, -67.431
1584.1000, -67.624
1584.2000, -67.745
1584.3000, -67.769
1584.4000, -68.008
1584.5000, -68.090
1584.6000, -68.151
1584.7000, -68.395
1584.8000, -68.345
1584.9000, -68.577
1585.0000, -68.552
1585.1000, -68.656
1585.2000, -68.869
1585.3000, -68.904
1585.4000, -68.971
1585.5000, -69.079
1585.6000, -69.276
1585.7000, -69.334
1585.8000, -69.465
1585.9000, -69.653
1586.0000, -69.885
1586.1000, -69.906
1586.2000, -70.154
1586.3000, -70.245
1586.4000, -70.368
1586.5000, -70.230
1586.6000, -70.585
1586.7000, -70.749
1586.8000, -70.948
1586.9000, -71.247
1587.0000, -71.388
1587.1000, -71.684
1587.2000, -71.420
1587.3000, -71.757
1587.4000, -71.813
1587.5000, -71.978
1587.6000, -72.068
1587.7000, -72.760
1587.8000, -72.205
1587.9000, -72.803
1588.0000, -72.679
1588.1000, -72.596
1588.2000, -73.086
1588.3000, -72.934
1588.4000, -73.484
1588.5000, -73.687
1588.6000, -73.460
1588.7000, -73.695
1588.8000, -74.015
1588.9000, -74.188
1589.0000, -73.809
1589.1000, -74.191
1589.2000, -74.147
1589.3000, -75.309
1589.4000, -74.591
1589.5000, -75.372
1589.6000, -75.046
1589.7000, -75.752
1589.8000, -75.478
1589.9000, -75.494
1590.0000, -76.048
1590.1000, -75.822
1590.2000, -76.041
1590.3000, -75.700
1590.4000, -76.851
1590.5000, -76.705
1590.6000, -76.333
1590.7000, -77.968
1590.8000, -76.941
1590.9000, -77.385
1591.0000, -77.023
1591.1000, -78.049
1591.2000, -77.701
1591.3000, -77.604
1591.4000, -77.960
1591.5000, -78.086
1591.6000, -77.878
1591.7000, -77.619
1591.8000, -77.623
1591.9000, -78.680
1592.0000, -77.792
1592.1000, -78.092
1592.2000, -78.552
1592.3000, -77.250
1592.4000, -77.476
1592.5000, -77.986
1592.6000, -77.769
1592.7000, -78.238
1592.8000, -77.068
1592.9000, -78.185
1593.0000, -77.543
1593.1000, -77.536
1593.2000, -76.540
1593.3000, -76.319
1593.4000, -76.504
1593.5000, -76.806
1593.6000, -76.006
1593.7000, -76.090
1593.8000, -75.645
1593.9000, -75.306
1594.0000, -75.454
1594.1000, -75.233
1594.2000, -75.089
1594.3000, -75.258
1594.4000, -75.012
1594.5000, -75.350
1594.6000, -74.829
1594.7000, -75.389
1594.8000, -74.460
1594.9000, -74.633
1595.0000, -74.664
1595.1000, -74.978
1595.2000, -75.007
1595.3000, -74.444
1595.4000, -75.009
1595.5000, -75.049
1595.6000, -74.506
1595.7000, -75.254
1595.8000, -75.507
1595.9000, -74.736
1596.0000, -75.010
1596.1000, -75.575
1596.2000, -75.848
1596.3000, -75.894
1596.4000, -75.745
1596.5000, -76.668
1596.6000, -75.362
1596.7000, -75.941
1596.8000, -76.200
1596.9000, -76.760
1597.0000, -76.249
1597.1000, -77.819
1597.2000, -77.893
1597.3000, -77.417
1597.4000, -77.398
1597.5000, -78.008
1597.6000, -78.610
1597.7000, -78.791
1597.8000, -79.110
1597.9000, -80.280
1598.0000, -80.959
1598.1000, -80.442
1598.2000, -81.592
1598.3000, -81.004
1598.4000, -81.081
1598.5000, -83.106
1598.6000, -79.409
1598.7000, -83.484
1598.8000, -81.475
1598.9000, -79.841
1599.0000, -78.751
1599.1000, -79.494
1599.2000, -79.539
1599.3000, -78.927
1599.4000, -78.690
1599.5000, -77.552
1599.6000, -77.301
1599.7000, -77.495
1599.8000, -76.499
1599.9000, -75.735
1600.0000, -75.556
1600.1000, -75.203
1600.2000, -74.825
1600.3000, -74.379
1600.4000, -74.419
1600.5000, -73.378
1600.6000, -73.714
1600.7000, -73.364
1600.8000, -73.070
1600.9000, -72.359
1601.0000, -72.355
1601.1000, -71.962
1601.2000, -72.105
1601.3000, -72.048
1601.4000, -71.734
1601.5000, -71.151
1601.6000, -71.078
1601.7000, -70.747
1601.8000, -70.656
1601.9000, -70.541
1602.0000, -70.354
1602.1000, -70.270
1602.2000, -69.980
1602.3000, -69.911
1602.4000, -69.632
1602.5000, -69.669
1602.6000, -69.630
1602.7000, -69.350
1602.8000, -69.148
1602.9000, -69.244
1603.0000, -69.018
1603.1000, -68.958
1603.2000, -68.754
1603.3000, -68.818
1603.4000, -68.508
1603.5000, -68.715
1603.6000, -68.530
1603.7000, -68.335
1603.8000, -68.428
1603.9000, -68.404
1604.0000, -68.457
1604.1000, -68.335
1604.2000, -68.457
1604.3000, -68.361
1604.4000, -68.457
1604.5000, -68.368
1604.6000, -68.451
1604.7000, -68.265
1604.8000, -68.329
1604.9000, -68.473
1605.0000, -68.321
1605.1000, -68.476
1605.2000, -68.483
1605.3000, -68.575
1605.4000, -68.572
1605.5000, -68.796
1605.6000, -68.755
1605.7000, -68.695
1605.8000, -68.877
1605.9000, -69.099
1606.0000, -69.040
1606.1000, -69.197
1606.2000, -69.550
1606.3000, -69.424
1606.4000, -69.558
1606.5000, -70.014
1606.6000, -69.874
1606.7000, -70.241
1606.8000, -70.024
1606.9000, -70.694
1607.0000, -71.018
1607.1000, -71.024
1607.2000, -71.097
1607.3000, -71.293
1607.4000, -71.723
1607.5000, -71.757
1607.6000, -71.999
1607.7000, -72.332
1607.8000, -72.511
1607.9000, -72.971
1608.0000, -73.320
1608.1000, -73.441
1608.2000, -73.272
1608.3000, -74.025
1608.4000, -74.440
1608.5000, -74.151
1608.6000, -74.488
1608.7000, -74.541
1608.8000, -75.031
1608.9000, -75.013
1609.0000, -74.897
1609.1000, -74.541
1609.2000, -74.842
1609.3000, -74.689
1609.4000, -74.103
1609.5000, -74.247
1609.6000, -74.623
1609.7000, -73.870
1609.8000, -74.058
1609.9000, -73.364
1610.0000, -73.278
1610.1000, -73.396
1610.2000, -72.954
1610.3000, -72.630
1610.4000, -72.753
1610.5000, -72.025
1610.6000, -72.511
1610.7000, -71.923
1610.8000, -71.511
1610.9000, -71.695
1611.0000, -71.448
1611.1000, -71.067
1611.2000, -71.268
1611.3000, -70.628
1611.4000, -70.634
1611.5000, -70.519
1611.6000, -70.471
1611.7000, -69.966
1611.8000, -69.963
1611.9000, -69.613
1612.0000, -69.516
1612.1000, -69.439
1612.2000, -69.127
1612.3000, -68.955
1612.4000, -68.795
1612.5000, -68.800
1612.6000, -68.593
1612.7000, -68.425
1612.8000, -68.358
1612.9000, -68.192
1613.0000, -68.186
1613.1000, -67.888
1613.2000, -68.084
1613.3000, -67.734
1613.4000, -67.805
1613.5000, -67.652
1613.6000, -67.576
1613.7000, -67.690
1613.8000, -67.583
1613.9000, -67.489
1614.0000, -67.616
1614.1000, -67.457
1614.2000, -67.574
1614.3000, -67.707
1614.4000, -67.512
1614.5000, -67.623
1614.6000, -67.748
1614.7000, -67.567
1614.8000, -67.578
1614.9000, -67.837
1615.0000, -67.749
1615.1000, -67.899
1615.2000, -67.782
1615.3000, -67.839
1615.4000, -68.003
1615.5000, -67.912
1615.6000, -68.295
1615.7000, -68.006
1615.8000, -68.317
1615.9000, -68.269
1616.0000, -68.250
1616.1000, -68.722
1616.2000, -68.619
1616.3000, -68.545
1616.4000, -68.818
1616.5000, -69.047
1616.6000, -69.019
1616.7000, -69.190
1616.8000, -69.061
1616.9000, -69.469
1617.0000, -69.385
1617.1000, -69.496
1617.2000, -69.918
1617.3000, -69.977
1617.4000, -70.103
1617.5000, -70.044
1617.6000, -70.722
1617.7000, -70.552
1617.8000, -71.051
1617.9000, -71.116
1618.0000, -71.438
1618.1000, -71.271
1618.2000, -71.597
1618.3000, -71.670
1618.4000, -71.911
1618.5000, -72.190
1618.6000, -72.704
1618.7000, -72.438
1618.8000, -72.782
1618.9000, -72.962
1619.0000, -73.048
1619.1000, -73.453
1619.2000, -73.664
1619.3000, -74.327
1619.4000, -73.326
1619.5000, -74.071
1619.6000, -73.729
1619.7000, -74.315
1619.8000, -73.943
1619.9000, -74.474
1620.0000, -74.325
