70BCSV 	
// AQ6370B OPTICAL SPECTRUM ANALYZER //                 
25
"CTRWL",1560.000000
"SPAN", 120.000000
"START WL",1500.000000
"STOP WL",1620.000000
"WLFREQ", 0
"REFL",-43.9
"LSCL", 5.0
"RESLN",0.500
"AVG",   1
"SMPLAUTO",      1
"SMPL",       1201
"SMPLINTVL",0.1000
"HIGH1"
"MEAS"
"LSUNT",0
"NMSKH","OFF"
"RESCOR",0
"RESPARM", 9740
"FREQPARM", 9740






"[TRACE DATA]"
1500.0000, -78.762
1500.1000, -82.443
1500.2000, -80.373
1500.3000, -80.029
1500.4000, -79.409
1500.5000, -78.997
1500.6000, -78.384
1500.7000, -77.649
1500.8000, -77.915
1500.9000, -75.946
1501.0000, -75.773
1501.1000, -75.157
1501.2000, -74.726
1501.3000, -73.982
1501.4000, -73.626
1501.5000, -73.164
1501.6000, -72.639
1501.7000, -71.870
1501.8000, -71.436
1501.9000, -71.049
1502.0000, -70.909
1502.1000, -70.220
1502.2000, -69.943
1502.3000, -69.606
1502.4000, -69.198
1502.5000, -69.067
1502.6000, -68.724
1502.7000, -68.508
1502.8000, -68.319
1502.9000, -68.071
1503.0000, -67.871
1503.1000, -67.615
1503.2000, -67.675
1503.3000, -67.531
1503.4000, -67.342
1503.5000, -67.305
1503.6000, -67.067
1503.7000, -67.015
1503.8000, -66.998
1503.9000, -66.831
1504.0000, -66.745
1504.1000, -66.758
1504.2000, -66.629
1504.3000, -66.620
1504.4000, -66.587
1504.5000, -66.547
1504.6000, -66.673
1504.7000, -66.600
1504.8000, -66.544
1504.9000, -66.631
1505.0000, -66.683
1505.1000, -66.646
1505.2000, -66.718
1505.3000, -66.850
1505.4000, -66.841
1505.5000, -67.060
1505.6000, -67.078
1505.7000, -67.224
1505.8000, -67.335
1505.9000, -67.503
1506.0000, -67.797
1506.1000, -67.881
1506.2000, -68.118
1506.3000, -68.423
1506.4000, -68.699
1506.5000, -68.977
1506.6000, -69.206
1506.7000, -69.621
1506.8000, -69.985
1506.9000, -70.489
1507.0000, -70.777
1507.1000, -71.353
1507.2000, -71.750
1507.3000, -72.170
1507.4000, -73.150
1507.5000, -73.689
1507.6000, -74.486
1507.7000, -74.734
1507.8000, -75.479
1507.9000, -75.133
1508.0000, -75.721
1508.1000, -74.919
1508.2000, -75.204
1508.3000, -74.198
1508.4000, -73.548
1508.5000, -73.145
1508.6000, -72.416
1508.7000, -71.571
1508.8000, -70.683
1508.9000, -70.098
1509.0000, -69.318
1509.1000, -68.829
1509.2000, -68.161
1509.3000, -67.623
1509.4000, -67.011
1509.5000, -66.597
1509.6000, -66.114
1509.7000, -65.654
1509.8000, -65.209
1509.9000, -64.842
1510.0000, -64.433
1510.1000, -64.098
1510.2000, -63.802
1510.3000, -63.455
1510.4000, -63.140
1510.5000, -62.857
1510.6000, -62.590
1510.7000, -62.288
1510.8000, -61.996
1510.9000, -61.772
1511.0000, -61.499
1511.1000, -61.298
1511.2000, -61.097
1511.3000, -60.904
1511.4000, -60.715
1511.5000, -60.536
1511.6000, -60.348
1511.7000, -60.227
1511.8000, -60.052
1511.9000, -59.888
1512.0000, -59.751
1512.1000, -59.611
1512.2000, -59.489
1512.3000, -59.396
1512.4000, -59.283
1512.5000, -59.178
1512.6000, -59.085
1512.7000, -58.983
1512.8000, -58.912
1512.9000, -58.821
1513.0000, -58.740
1513.1000, -58.684
1513.2000, -58.608
1513.3000, -58.544
1513.4000, -58.507
1513.5000, -58.450
1513.6000, -58.426
1513.7000, -58.387
1513.8000, -58.368
1513.9000, -58.354
1514.0000, -58.337
1514.1000, -58.327
1514.2000, -58.332
1514.3000, -58.309
1514.4000, -58.318
1514.5000, -58.320
1514.6000, -58.300
1514.7000, -58.337
1514.8000, -58.340
1514.9000, -58.379
1515.0000, -58.378
1515.1000, -58.397
1515.2000, -58.427
1515.3000, -58.420
1515.4000, -58.417
1515.5000, -58.407
1515.6000, -58.410
1515.7000, -58.444
1515.8000, -58.445
1515.9000, -58.455
1516.0000, -58.462
1516.1000, -58.440
1516.2000, -58.412
1516.3000, -58.420
1516.4000, -58.400
1516.5000, -58.357
1516.6000, -58.316
1516.7000, -58.238
1516.8000, -58.146
1516.9000, -58.050
1517.0000, -57.925
1517.1000, -57.795
1517.2000, -57.637
1517.3000, -57.459
1517.4000, -57.273
1517.5000, -57.095
1517.6000, -56.894
1517.7000, -56.685
1517.8000, -56.480
1517.9000, -56.242
1518.0000, -56.021
1518.1000, -55.770
1518.2000, -55.533
1518.3000, -55.280
1518.4000, -55.042
1518.5000, -54.790
1518.6000, -54.519
1518.7000, -54.290
1518.8000, -54.065
1518.9000, -53.823
1519.0000, -53.596
1519.1000, -53.370
1519.2000, -53.123
1519.3000, -52.890
1519.4000, -52.671
1519.5000, -52.486
1519.6000, -52.259
1519.7000, -52.029
1519.8000, -51.814
1519.9000, -51.623
1520.0000, -51.389
1520.1000, -51.193
1520.2000, -50.961
1520.3000, -50.806
1520.4000, -50.593
1520.5000, -50.386
1520.6000, -50.193
1520.7000, -49.986
1520.8000, -49.814
1520.9000, -49.607
1521.0000, -49.466
1521.1000, -49.300
1521.2000, -49.142
1521.3000, -48.989
1521.4000, -48.834
1521.5000, -48.678
1521.6000, -48.527
1521.7000, -48.383
1521.8000, -48.238
1521.9000, -48.109
1522.0000, -47.986
1522.1000, -47.859
1522.2000, -47.753
1522.3000, -47.648
1522.4000, -47.554
1522.5000, -47.458
1522.6000, -47.378
1522.7000, -47.313
1522.8000, -47.242
1522.9000, -47.198
1523.0000, -47.156
1523.1000, -47.124
1523.2000, -47.103
1523.3000, -47.062
1523.4000, -47.105
1523.5000, -47.115
1523.6000, -47.132
1523.7000, -47.180
1523.8000, -47.221
1523.9000, -47.250
1524.0000, -47.353
1524.1000, -47.489
1524.2000, -47.663
1524.3000, -47.866
1524.4000, -48.075
1524.5000, -48.299
1524.6000, -48.512
1524.7000, -48.772
1524.8000, -49.018
1524.9000, -49.287
1525.0000, -49.643
1525.1000, -50.033
1525.2000, -50.390
1525.3000, -50.732
1525.4000, -51.099
1525.5000, -51.400
1525.6000, -51.654
1525.7000, -51.803
1525.8000, -51.849
1525.9000, -51.782
1526.0000, -51.554
1526.1000, -51.231
1526.2000, -50.812
1526.3000, -50.317
1526.4000, -49.766
1526.5000, -49.191
1526.6000, -48.604
1526.7000, -47.986
1526.8000, -47.342
1526.9000, -46.692
1527.0000, -46.070
1527.1000, -45.461
1527.2000, -44.852
1527.3000, -44.270
1527.4000, -43.684
1527.5000, -43.143
1527.6000, -42.612
1527.7000, -42.093
1527.8000, -41.603
1527.9000, -41.038
1528.0000, -40.629
1528.1000, -40.209
1528.2000, -39.793
1528.3000, -39.393
1528.4000, -39.029
1528.5000, -38.614
1528.6000, -38.318
1528.7000, -38.054
1528.8000, -37.688
1528.9000, -37.402
1529.0000, -37.103
1529.1000, -36.842
1529.2000, -36.621
1529.3000, -36.390
1529.4000, -36.163
1529.5000, -35.956
1529.6000, -35.859
1529.7000, -35.811
1529.8000, -35.696
1529.9000, -35.554
1530.0000, -35.497
1530.1000, -35.440
1530.2000, -35.382
1530.3000, -35.334
1530.4000, -35.328
1530.5000, -35.342
1530.6000, -35.363
1530.7000, -35.336
1530.8000, -35.423
1530.9000, -35.544
1531.0000, -35.604
1531.1000, -35.703
1531.2000, -35.860
1531.3000, -36.032
1531.4000, -36.176
1531.5000, -36.422
1531.6000, -36.675
1531.7000, -36.988
1531.8000, -37.324
1531.9000, -37.670
1532.0000, -38.044
1532.1000, -38.458
1532.2000, -38.930
1532.3000, -39.437
1532.4000, -40.037
1532.5000, -40.568
1532.6000, -41.270
1532.7000, -42.000
1532.8000, -42.716
1532.9000, -43.462
1533.0000, -44.236
1533.1000, -44.907
1533.2000, -45.631
1533.3000, -46.212
1533.4000, -46.564
1533.5000, -46.757
1533.6000, -46.646
1533.7000, -46.314
1533.8000, -45.945
1533.9000, -45.448
1534.0000, -44.849
1534.1000, -44.404
1534.2000, -43.944
1534.3000, -43.517
1534.4000, -43.138
1534.5000, -42.783
1534.6000, -42.513
1534.7000, -42.252
1534.8000, -41.992
1534.9000, -41.800
1535.0000, -41.626
1535.1000, -41.460
1535.2000, -41.334
1535.3000, -41.237
1535.4000, -41.204
1535.5000, -41.202
1535.6000, -41.204
1535.7000, -41.235
1535.8000, -41.246
1535.9000, -41.271
1536.0000, -41.304
1536.1000, -41.354
1536.2000, -41.426
1536.3000, -41.478
1536.4000, -41.545
1536.5000, -41.589
1536.6000, -41.647
1536.7000, -41.741
1536.8000, -41.836
1536.9000, -41.903
1537.0000, -41.978
1537.1000, -42.072
1537.2000, -42.158
1537.3000, -42.244
1537.4000, -42.346
1537.5000, -42.442
1537.6000, -42.545
1537.7000, -42.655
1537.8000, -42.811
1537.9000, -42.943
1538.0000, -43.051
1538.1000, -43.166
1538.2000, -43.295
1538.3000, -43.431
1538.4000, -43.553
1538.5000, -43.708
1538.6000, -43.864
1538.7000, -44.061
1538.8000, -44.281
1538.9000, -44.476
1539.0000, -44.665
1539.1000, -44.890
1539.2000, -45.124
1539.3000, -45.335
1539.4000, -45.559
1539.5000, -45.805
1539.6000, -46.054
1539.7000, -46.310
1539.8000, -46.572
1539.9000, -46.863
1540.0000, -47.157
1540.1000, -47.453
1540.2000, -47.753
1540.3000, -48.071
1540.4000, -48.382
1540.5000, -48.684
1540.6000, -49.012
1540.7000, -49.367
1540.8000, -49.718
1540.9000, -50.056
1541.0000, -50.361
1541.1000, -50.692
1541.2000, -51.017
1541.3000, -51.333
1541.4000, -51.617
1541.5000, -51.913
1541.6000, -52.171
1541.7000, -52.412
1541.8000, -52.569
1541.9000, -52.686
1542.0000, -52.735
1542.1000, -52.733
1542.2000, -52.668
1542.3000, -52.575
1542.4000, -52.421
1542.5000, -52.174
1542.6000, -51.942
1542.7000, -51.644
1542.8000, -51.373
1542.9000, -51.069
1543.0000, -50.734
1543.1000, -50.382
1543.2000, -50.049
1543.3000, -49.735
1543.4000, -49.381
1543.5000, -49.018
1543.6000, -48.689
1543.7000, -48.374
1543.8000, -48.054
1543.9000, -47.742
1544.0000, -47.493
1544.1000, -47.242
1544.2000, -46.993
1544.3000, -46.729
1544.4000, -46.516
1544.5000, -46.288
1544.6000, -46.069
1544.7000, -45.862
1544.8000, -45.667
1544.9000, -45.462
1545.0000, -45.266
1545.1000, -45.101
1545.2000, -44.926
1545.3000, -44.804
1545.4000, -44.690
1545.5000, -44.547
1545.6000, -44.418
1545.7000, -44.323
1545.8000, -44.200
1545.9000, -44.090
1546.0000, -43.990
1546.1000, -43.904
1546.2000, -43.887
1546.3000, -43.856
1546.4000, -43.841
1546.5000, -43.814
1546.6000, -43.783
1546.7000, -43.758
1546.8000, -43.776
1546.9000, -43.783
1547.0000, -43.769
1547.1000, -43.793
1547.2000, -43.821
1547.3000, -43.876
1547.4000, -43.914
1547.5000, -43.946
1547.6000, -43.999
1547.7000, -44.084
1547.8000, -44.181
1547.9000, -44.269
1548.0000, -44.346
1548.1000, -44.467
1548.2000, -44.592
1548.3000, -44.713
1548.4000, -44.857
1548.5000, -44.995
1548.6000, -45.129
1548.7000, -45.283
1548.8000, -45.429
1548.9000, -45.603
1549.0000, -45.796
1549.1000, -45.970
1549.2000, -46.176
1549.3000, -46.368
1549.4000, -46.557
1549.5000, -46.771
1549.6000, -46.987
1549.7000, -47.240
1549.8000, -47.488
1549.9000, -47.743
1550.0000, -48.007
1550.1000, -48.274
1550.2000, -48.564
1550.3000, -48.860
1550.4000, -49.177
1550.5000, -49.480
1550.6000, -49.801
1550.7000, -50.106
1550.8000, -50.402
1550.9000, -50.701
1551.0000, -50.996
1551.1000, -51.256
1551.2000, -51.546
1551.3000, -51.840
1551.4000, -52.153
1551.5000, -52.454
1551.6000, -52.702
1551.7000, -52.986
1551.8000, -53.306
1551.9000, -53.593
1552.0000, -53.827
1552.1000, -54.097
1552.2000, -54.404
1552.3000, -54.655
1552.4000, -54.902
1552.5000, -55.169
1552.6000, -55.412
1552.7000, -55.623
1552.8000, -55.809
1552.9000, -56.012
1553.0000, -56.206
1553.1000, -56.405
1553.2000, -56.607
1553.3000, -56.829
1553.4000, -57.076
1553.5000, -57.279
1553.6000, -57.465
1553.7000, -57.606
1553.8000, -57.709
1553.9000, -57.803
1554.0000, -57.899
1554.1000, -58.011
1554.2000, -58.065
1554.3000, -58.131
1554.4000, -58.145
1554.5000, -58.107
1554.6000, -58.057
1554.7000, -57.931
1554.8000, -57.743
1554.9000, -57.539
1555.0000, -57.297
1555.1000, -57.069
1555.2000, -56.790
1555.3000, -56.493
1555.4000, -56.203
1555.5000, -55.883
1555.6000, -55.602
1555.7000, -55.323
1555.8000, -55.003
1555.9000, -54.669
1556.0000, -54.329
1556.1000, -54.017
1556.2000, -53.722
1556.3000, -53.420
1556.4000, -53.129
1556.5000, -52.825
1556.6000, -52.576
1556.7000, -52.303
1556.8000, -52.050
1556.9000, -51.798
1557.0000, -51.550
1557.1000, -51.296
1557.2000, -51.055
1557.3000, -50.841
1557.4000, -50.611
1557.5000, -50.387
1557.6000, -50.148
1557.7000, -49.948
1557.8000, -49.763
1557.9000, -49.551
1558.0000, -49.371
1558.1000, -49.210
1558.2000, -49.045
1558.3000, -48.912
1558.4000, -48.796
1558.5000, -48.692
1558.6000, -48.587
1558.7000, -48.488
1558.8000, -48.384
1558.9000, -48.280
1559.0000, -48.191
1559.1000, -48.110
1559.2000, -48.050
1559.3000, -47.998
1559.4000, -47.987
1559.5000, -47.954
1559.6000, -47.938
1559.7000, -47.920
1559.8000, -47.910
1559.9000, -47.873
1560.0000, -47.907
1560.1000, -47.953
1560.2000, -48.039
1560.3000, -48.113
1560.4000, -48.198
1560.5000, -48.278
1560.6000, -48.355
1560.7000, -48.457
1560.8000, -48.538
1560.9000, -48.673
1561.0000, -48.833
1561.1000, -48.999
1561.2000, -49.155
1561.3000, -49.360
1561.4000, -49.551
1561.5000, -49.753
1561.6000, -49.948
1561.7000, -50.167
1561.8000, -50.392
1561.9000, -50.633
1562.0000, -50.890
1562.1000, -51.189
1562.2000, -51.491
1562.3000, -51.802
1562.4000, -52.151
1562.5000, -52.516
1562.6000, -52.901
1562.7000, -53.321
1562.8000, -53.752
1562.9000, -54.197
1563.0000, -54.658
1563.1000, -55.147
1563.2000, -55.666
1563.3000, -56.222
1563.4000, -56.833
1563.5000, -57.479
1563.6000, -58.158
1563.7000, -58.875
1563.8000, -59.705
1563.9000, -60.520
1564.0000, -61.373
1564.1000, -62.116
1564.2000, -62.779
1564.3000, -63.248
1564.4000, -63.603
1564.5000, -63.634
1564.6000, -63.367
1564.7000, -62.880
1564.8000, -62.238
1564.9000, -61.571
1565.0000, -60.914
1565.1000, -60.225
1565.2000, -59.543
1565.3000, -58.907
1565.4000, -58.327
1565.5000, -57.751
1565.6000, -57.241
1565.7000, -56.758
1565.8000, -56.280
1565.9000, -55.859
1566.0000, -55.438
1566.1000, -55.074
1566.2000, -54.736
1566.3000, -54.413
1566.4000, -54.150
1566.5000, -53.889
1566.6000, -53.678
1566.7000, -53.481
1566.8000, -53.317
1566.9000, -53.158
1567.0000, -53.016
1567.1000, -52.891
1567.2000, -52.763
1567.3000, -52.661
1567.4000, -52.574
1567.5000, -52.488
1567.6000, -52.416
1567.7000, -52.366
1567.8000, -52.326
1567.9000, -52.297
1568.0000, -52.260
1568.1000, -52.253
1568.2000, -52.247
1568.3000, -52.239
1568.4000, -52.241
1568.5000, -52.238
1568.6000, -52.235
1568.7000, -52.248
1568.8000, -52.288
1568.9000, -52.302
1569.0000, -52.325
1569.1000, -52.359
1569.2000, -52.392
1569.3000, -52.416
1569.4000, -52.446
1569.5000, -52.496
1569.6000, -52.547
1569.7000, -52.642
1569.8000, -52.748
1569.9000, -52.855
1570.0000, -52.969
1570.1000, -53.090
1570.2000, -53.218
1570.3000, -53.338
1570.4000, -53.473
1570.5000, -53.616
1570.6000, -53.757
1570.7000, -53.936
1570.8000, -54.109
1570.9000, -54.282
1571.0000, -54.467
1571.1000, -54.650
1571.2000, -54.845
1571.3000, -55.039
1571.4000, -55.237
1571.5000, -55.447
1571.6000, -55.681
1571.7000, -55.912
1571.8000, -56.172
1571.9000, -56.446
1572.0000, -56.709
1572.1000, -56.976
1572.2000, -57.257
1572.3000, -57.491
1572.4000, -57.778
1572.5000, -58.071
1572.6000, -58.351
1572.7000, -58.658
1572.8000, -58.931
1572.9000, -59.242
1573.0000, -59.539
1573.1000, -59.887
1573.2000, -60.191
1573.3000, -60.558
1573.4000, -60.876
1573.5000, -61.202
1573.6000, -61.575
1573.7000, -61.970
1573.8000, -62.327
1573.9000, -62.722
1574.0000, -63.101
1574.1000, -63.468
1574.2000, -63.854
1574.3000, -64.221
1574.4000, -64.588
1574.5000, -64.879
1574.6000, -65.227
1574.7000, -65.479
1574.8000, -65.763
1574.9000, -65.981
1575.0000, -66.119
1575.1000, -66.245
1575.2000, -66.334
1575.3000, -66.441
1575.4000, -66.322
1575.5000, -66.148
1575.6000, -66.053
1575.7000, -65.873
1575.8000, -65.667
1575.9000, -65.479
1576.0000, -65.247
1576.1000, -65.019
1576.2000, -64.837
1576.3000, -64.598
1576.4000, -64.469
1576.5000, -64.243
1576.6000, -64.094
1576.7000, -63.974
1576.8000, -63.796
1576.9000, -63.694
1577.0000, -63.561
1577.1000, -63.449
1577.2000, -63.354
1577.3000, -63.271
1577.4000, -63.213
1577.5000, -63.134
1577.6000, -63.067
1577.7000, -63.033
1577.8000, -62.951
1577.9000, -62.864
1578.0000, -62.783
1578.1000, -62.748
1578.2000, -62.725
1578.3000, -62.657
1578.4000, -62.645
1578.5000, -62.566
1578.6000, -62.547
1578.7000, -62.518
1578.8000, -62.506
1578.9000, -62.528
1579.0000, -62.490
1579.1000, -62.495
1579.2000, -62.528
1579.3000, -62.594
1579.4000, -62.640
1579.5000, -62.625
1579.6000, -62.698
1579.7000, -62.762
1579.8000, -62.792
1579.9000, -62.836
1580.0000, -62.929
1580.1000, -63.027
1580.2000, -63.073
1580.3000, -63.213
1580.4000, -63.383
1580.5000, -63.518
1580.6000, -63.613
1580.7000, -63.816
1580.8000, -63.934
1580.9000, -64.170
1581.0000, -64.326
1581.1000, -64.479
1581.2000, -64.698
1581.3000, -64.871
1581.4000, -65.041
1581.5000, -65.202
1581.6000, -65.492
1581.7000, -65.645
1581.8000, -65.988
1581.9000, -66.137
1582.0000, -66.540
1582.1000, -66.806
1582.2000, -66.970
1582.3000, -67.309
1582.4000, -67.507
1582.5000, -67.863
1582.6000, -68.246
1582.7000, -68.471
1582.8000, -68.901
1582.9000, -69.192
1583.0000, -69.660
1583.1000, -69.746
1583.2000, -70.092
1583.3000, -70.448
1583.4000, -70.920
1583.5000, -71.120
1583.6000, -71.277
1583.7000, -71.826
1583.8000, -72.095
1583.9000, -72.181
1584.0000, -72.779
1584.1000, -73.165
1584.2000, -73.364
1584.3000, -73.541
1584.4000, -74.005
1584.5000, -74.403
1584.6000, -74.284
1584.7000, -74.314
1584.8000, -74.678
1584.9000, -75.103
1585.0000, -75.012
1585.1000, -74.422
1585.2000, -74.718
1585.3000, -74.547
1585.4000, -75.410
1585.5000, -74.592
1585.6000, -74.586
1585.7000, -74.659
1585.8000, -74.236
1585.9000, -74.415
1586.0000, -74.370
1586.1000, -74.205
1586.2000, -74.286
1586.3000, -73.954
1586.4000, -73.812
1586.5000, -73.446
1586.6000, -73.728
1586.7000, -72.964
1586.8000, -73.532
1586.9000, -73.392
1587.0000, -73.372
1587.1000, -73.732
1587.2000, -73.411
1587.3000, -73.207
1587.4000, -73.048
1587.5000, -72.923
1587.6000, -73.010
1587.7000, -73.331
1587.8000, -72.918
1587.9000, -72.993
1588.0000, -73.048
1588.1000, -72.700
1588.2000, -72.953
1588.3000, -72.876
1588.4000, -72.736
1588.5000, -72.961
1588.6000, -73.164
1588.7000, -72.973
1588.8000, -73.115
1588.9000, -73.013
1589.0000, -73.186
1589.1000, -72.695
1589.2000, -72.570
1589.3000, -73.420
1589.4000, -72.878
1589.5000, -73.916
1589.6000, -73.091
1589.7000, -73.171
1589.8000, -73.103
1589.9000, -73.046
1590.0000, -73.088
1590.1000, -72.996
1590.2000, -72.897
1590.3000, -72.569
1590.4000, -73.405
1590.5000, -72.731
1590.6000, -72.524
1590.7000, -72.634
1590.8000, -72.488
1590.9000, -72.702
1591.0000, -72.654
1591.1000, -72.830
1591.2000, -72.717
1591.3000, -72.588
1591.4000, -72.517
1591.5000, -72.708
1591.6000, -72.462
1591.7000, -72.517
1591.8000, -72.464
1591.9000, -72.490
1592.0000, -72.385
1592.1000, -72.419
1592.2000, -72.479
1592.3000, -72.269
1592.4000, -72.060
1592.5000, -72.304
1592.6000, -72.557
1592.7000, -72.172
1592.8000, -72.286
1592.9000, -72.037
1593.0000, -72.272
1593.1000, -72.364
1593.2000, -72.122
1593.3000, -72.067
1593.4000, -71.911
1593.5000, -72.335
1593.6000, -72.466
1593.7000, -72.233
1593.8000, -72.319
1593.9000, -72.617
1594.0000, -72.450
1594.1000, -72.399
1594.2000, -72.512
1594.3000, -72.220
1594.4000, -72.525
1594.5000, -72.260
1594.6000, -72.634
1594.7000, -72.254
1594.8000, -72.579
1594.9000, -73.026
1595.0000, -72.256
1595.1000, -72.715
1595.2000, -72.761
1595.3000, -72.525
1595.4000, -73.157
1595.5000, -72.635
1595.6000, -73.274
1595.7000, -73.045
1595.8000, -73.033
1595.9000, -73.274
1596.0000, -73.148
1596.1000, -72.893
1596.2000, -73.103
1596.3000, -72.899
1596.4000, -72.771
1596.5000, -73.140
1596.6000, -73.115
1596.7000, -72.672
1596.8000, -73.165
1596.9000, -72.960
1597.0000, -72.695
1597.1000, -72.575
1597.2000, -72.335
1597.3000, -72.282
1597.4000, -72.509
1597.5000, -72.323
1597.6000, -72.259
1597.7000, -71.964
1597.8000, -71.885
1597.9000, -71.689
1598.0000, -71.502
1598.1000, -71.637
1598.2000, -71.165
1598.3000, -71.254
1598.4000, -71.075
1598.5000, -70.738
1598.6000, -70.852
1598.7000, -70.406
1598.8000, -70.381
1598.9000, -70.330
1599.0000, -70.125
1599.1000, -70.104
1599.2000, -69.919
1599.3000, -69.796
1599.4000, -69.780
1599.5000, -69.699
1599.6000, -69.394
1599.7000, -69.555
1599.8000, -69.163
1599.9000, -69.364
1600.0000, -69.137
1600.1000, -69.052
1600.2000, -68.959
1600.3000, -69.050
1600.4000, -68.912
1600.5000, -68.891
1600.6000, -68.775
1600.7000, -68.812
1600.8000, -68.716
1600.9000, -68.916
1601.0000, -68.802
1601.1000, -68.753
1601.2000, -68.822
1601.3000, -68.785
1601.4000, -68.775
1601.5000, -68.778
1601.6000, -68.835
1601.7000, -68.928
1601.8000, -68.867
1601.9000, -69.084
1602.0000, -68.988
1602.1000, -69.106
1602.2000, -69.190
1602.3000, -69.357
1602.4000, -69.316
1602.5000, -69.312
1602.6000, -69.620
1602.7000, -69.554
1602.8000, -69.691
1602.9000, -69.945
1603.0000, -70.005
1603.1000, -70.050
1603.2000, -70.399
1603.3000, -70.278
1603.4000, -70.541
1603.5000, -70.862
1603.6000, -71.268
1603.7000, -71.213
1603.8000, -70.904
1603.9000, -71.656
1604.0000, -71.919
1604.1000, -72.092
1604.2000, -72.398
1604.3000, -72.698
1604.4000, -72.764
1604.5000, -72.908
1604.6000, -73.450
1604.7000, -73.944
1604.8000, -73.789
1604.9000, -74.495
1605.0000, -74.361
1605.1000, -75.218
1605.2000, -75.438
1605.3000, -74.964
1605.4000, -75.444
1605.5000, -76.174
1605.6000, -76.434
1605.7000, -76.512
1605.8000, -77.382
1605.9000, -76.485
1606.0000, -77.453
1606.1000, -76.731
1606.2000, -77.623
1606.3000, -77.346
1606.4000, -76.880
1606.5000, -76.606
1606.6000, -75.803
1606.7000, -76.800
1606.8000, -76.658
1606.9000, -75.158
1607.0000, -75.553
1607.1000, -75.812
1607.2000, -74.758
1607.3000, -74.891
1607.4000, -74.171
1607.5000, -74.353
1607.6000, -73.803
1607.7000, -73.761
1607.8000, -72.923
1607.9000, -72.787
1608.0000, -72.350
1608.1000, -72.496
1608.2000, -71.968
1608.3000, -71.419
1608.4000, -71.237
1608.5000, -71.106
1608.6000, -70.756
1608.7000, -70.459
1608.8000, -70.238
1608.9000, -69.922
1609.0000, -69.785
1609.1000, -69.408
1609.2000, -69.175
1609.3000, -69.231
1609.4000, -68.892
1609.5000, -68.967
1609.6000, -68.682
1609.7000, -68.534
1609.8000, -68.382
1609.9000, -68.272
1610.0000, -68.056
1610.1000, -67.979
1610.2000, -67.981
1610.3000, -67.821
1610.4000, -67.656
1610.5000, -67.790
1610.6000, -67.679
1610.7000, -67.630
1610.8000, -67.460
1610.9000, -67.546
1611.0000, -67.492
1611.1000, -67.460
1611.2000, -67.437
1611.3000, -67.477
1611.4000, -67.389
1611.5000, -67.426
1611.6000, -67.307
1611.7000, -67.335
1611.8000, -67.400
1611.9000, -67.363
1612.0000, -67.463
1612.1000, -67.399
1612.2000, -67.487
1612.3000, -67.362
1612.4000, -67.553
1612.5000, -67.444
1612.6000, -67.635
1612.7000, -67.638
1612.8000, -67.683
1612.9000, -67.704
1613.0000, -67.703
1613.1000, -67.901
1613.2000, -68.027
1613.3000, -67.942
1613.4000, -68.163
1613.5000, -68.241
1613.6000, -68.242
1613.7000, -68.409
1613.8000, -68.616
1613.9000, -68.795
1614.0000, -68.948
1614.1000, -69.191
1614.2000, -69.399
1614.3000, -69.428
1614.4000, -69.674
1614.5000, -69.986
1614.6000, -70.259
1614.7000, -70.405
1614.8000, -70.674
1614.9000, -70.806
1615.0000, -71.280
1615.1000, -71.521
1615.2000, -71.504
1615.3000, -71.945
1615.4000, -72.357
1615.5000, -72.657
1615.6000, -73.127
1615.7000, -72.540
1615.8000, -73.497
1615.9000, -73.329
1616.0000, -74.273
1616.1000, -74.221
1616.2000, -74.362
1616.3000, -74.834
1616.4000, -74.432
1616.5000, -75.400
1616.6000, -74.731
1616.7000, -74.948
1616.8000, -75.183
1616.9000, -74.832
1617.0000, -75.223
1617.1000, -75.486
1617.2000, -76.026
1617.3000, -75.647
1617.4000, -75.403
1617.5000, -76.016
1617.6000, -75.739
1617.7000, -75.515
1617.8000, -74.601
1617.9000, -75.478
1618.0000, -74.871
1618.1000, -75.382
1618.2000, -74.328
1618.3000, -74.614
1618.4000, -74.362
1618.5000, -73.698
1618.6000, -73.829
1618.7000, -73.783
1618.8000, -73.053
1618.9000, -72.779
1619.0000, -72.469
1619.1000, -73.066
1619.2000, -72.780
1619.3000, -72.373
1619.4000, -71.879
1619.5000, -72.017
1619.6000, -71.697
1619.7000, -71.551
1619.8000, -71.281
1619.9000, -71.029
1620.0000, -70.982
